# Arias Intensities from input accel: ./test_inputs/NGA_no_1063_RRS228.AT2
# Peak Arias Intensity (cm/sec): 750.317049 (secs): 19.890000
# Arias Intervals: T5-75 3.460000 (s), T5-95 7.260000 (secs)
# Seconds Accel (g) Arias Intensity (cm/s) ADNormalized (%)
# 1990 0.010000  NPTS, DT
 0.000000 -0.007315  0.000000  0.000000
 0.010000 -0.007358  0.000829  0.000111
 0.020000 -0.000529  0.001249  0.000166
 0.030000  0.007142  0.001644  0.000219
 0.040000  0.014738  0.003710  0.000495
 0.050000  0.012436  0.006575  0.000876
 0.060000 -0.011322  0.008755  0.001167
 0.070000 -0.039193  0.021577  0.002876
 0.080000 -0.030692  0.040670  0.005420
 0.090000 -0.005289  0.048143  0.006416
 0.100000 -0.000212  0.048359  0.006445
 0.110000 -0.019148  0.051184  0.006822
 0.120000 -0.049092  0.072578  0.009673
 0.130000 -0.060623  0.119462  0.015922
 0.140000 -0.051664  0.168344  0.022436
 0.150000 -0.043344  0.203384  0.027106
 0.160000 -0.037212  0.228528  0.030458
 0.170000 -0.040926  0.252102  0.033599
 0.180000 -0.071767  0.304691  0.040608
 0.190000 -0.097291  0.417305  0.055617
 0.200000 -0.082235  0.542339  0.072281
 0.210000 -0.046314  0.610970  0.081428
 0.220000 -0.027325  0.633249  0.084398
 0.230000 -0.016887  0.641199  0.085457
 0.240000 -0.010380  0.644226  0.085861
 0.250000 -0.033626  0.653768  0.087132
 0.260000 -0.081134  0.713199  0.095053
 0.270000 -0.088847  0.824736  0.109918
 0.280000 -0.056887  0.910489  0.121347
 0.290000 -0.028209  0.941554  0.125487
 0.300000  0.013697  0.949131  0.126497
 0.310000  0.060797  0.979055  0.130486
 0.320000  0.077491  1.053800  0.140447
 0.330000  0.078772  1.147874  0.152985
 0.340000  0.073169  1.236932  0.164855
 0.350000  0.053564  1.300287  0.173298
 0.360000  0.027707  1.328307  0.177033
 0.370000  0.006172  1.334515  0.177860
 0.380000  0.031660  1.342531  0.178929
 0.390000  0.036866  1.360726  0.181353
 0.400000 -0.029521  1.377912  0.183644
 0.410000 -0.046916  1.401586  0.186799
 0.420000 -0.036599  1.428866  0.190435
 0.430000 -0.046348  1.455737  0.194016
 0.440000  0.017949  1.474770  0.196553
 0.450000  0.059357  1.504398  0.200502
 0.460000  0.041363  1.544725  0.205876
 0.470000  0.060251  1.585877  0.211361
 0.480000  0.078027  1.660755  0.221340
 0.490000  0.054236  1.730327  0.230613
 0.500000  0.046575  1.769703  0.235861
 0.510000  0.061759  1.815804  0.242005
 0.520000  0.052256  1.866230  0.248725
 0.530000 -0.008701  1.887852  0.251607
 0.540000 -0.063540  1.919542  0.255831
 0.550000 -0.049520  1.969543  0.262495
 0.560000 -0.021136  1.991878  0.265472
 0.570000 -0.034261  2.004364  0.267136
 0.580000 -0.064460  2.045422  0.272608
 0.590000 -0.054873  2.100634  0.279966
 0.600000 -0.031238  2.131352  0.284060
 0.610000 -0.051905  2.159628  0.287829
 0.620000 -0.107889  2.270069  0.302548
 0.630000 -0.152272  2.538401  0.338310
 0.640000 -0.140370  2.868862  0.382353
 0.650000 -0.034801  3.030005  0.403830
 0.660000  0.068975  3.075992  0.409959
 0.670000  0.088631  3.173173  0.422911
 0.680000  0.031835  3.241506  0.432018
 0.690000 -0.019761  3.252322  0.433460
 0.700000 -0.020585  3.258596  0.434296
 0.710000  0.011910  3.262953  0.434877
 0.720000  0.022620  3.267989  0.435548
 0.730000 -0.015073  3.273681  0.436306
 0.740000 -0.038822  3.287044  0.438087
 0.750000 -0.027457  3.304465  0.440409
 0.760000 -0.039632  3.322375  0.442796
 0.770000 -0.102080  3.414763  0.455109
 0.780000 -0.177741  3.738456  0.498250
 0.790000 -0.219931  4.354540  0.580360
 0.800000 -0.201534  5.040153  0.671736
 0.810000 -0.101680  5.432747  0.724060
 0.820000 -0.020634  5.515685  0.735114
 0.830000  0.028086  5.525043  0.736361
 0.840000  0.015691  5.533018  0.737424
 0.850000 -0.013155  5.536248  0.737855
 0.860000 -0.000063  5.537582  0.738032
 0.870000 -0.000187  5.537582  0.738032
 0.880000 -0.002102  5.537616  0.738037
 0.890000  0.008631  5.538224  0.738118
 0.900000  0.016980  5.541020  0.738490
 0.910000  0.011655  5.544288  0.738926
 0.920000  0.006381  5.545648  0.739107
 0.930000  0.026278  5.551282  0.739858
 0.940000  0.052422  5.577776  0.743389
 0.950000  0.047899  5.616626  0.748567
 0.960000  0.026643  5.639772  0.751652
 0.970000  0.018122  5.647771  0.752718
 0.980000  0.030582  5.657507  0.754016
 0.990000  0.009032  5.665342  0.755060
 1.000000  0.000012  5.665970  0.755143
 1.010000  0.019672  5.668952  0.755541
 1.020000  0.011507  5.672954  0.756074
 1.030000 -0.077034  5.719695  0.762304
 1.040000 -0.148057  5.934312  0.790907
 1.050000 -0.151156  6.279246  0.836879
 1.060000 -0.149691  6.627929  0.883350
 1.070000 -0.127531  6.925884  0.923061
 1.080000 -0.049905  7.070384  0.942320
 1.090000  0.026038  7.094797  0.945573
 1.100000  0.038113  7.111212  0.947761
 1.110000  0.015223  7.124190  0.949491
 1.120000 -0.007022  7.126355  0.949779
 1.130000 -0.017239  7.129025  0.950135
 1.140000 -0.017357  7.133635  0.950749
 1.150000  0.108228  7.226205  0.963087
 1.160000  0.256579  7.823679  1.042716
 1.170000  0.262513  8.861862  1.181082
 1.180000  0.072713  9.433557  1.257276
 1.190000 -0.086419  9.531835  1.270374
 1.200000 -0.061738  9.618743  1.281957
 1.210000 -0.011386  9.649109  1.286004
 1.220000 -0.029835  9.656966  1.287051
 1.230000 -0.062525  9.693945  1.291980
 1.240000 -0.015820  9.725993  1.296251
 1.250000 -0.036645  9.738268  1.297887
 1.260000 -0.082026  9.800453  1.306175
 1.270000 -0.070482  9.890567  1.318185
 1.280000 -0.036995  9.939386  1.324692
 1.290000 -0.041170  9.962991  1.327837
 1.300000 -0.093155  10.042911  1.338489
 1.310000 -0.125594  10.231306  1.363598
 1.320000 -0.157446  10.543835  1.405251
 1.330000 -0.177259  10.976919  1.462971
 1.340000 -0.163965  11.426147  1.522843
 1.350000 -0.127710  11.758949  1.567197
 1.360000 -0.057168  11.909793  1.587301
 1.370000  0.014904  11.936684  1.590885
 1.380000  0.036657  11.948748  1.592493
 1.390000  0.040395  11.971674  1.595549
 1.400000  0.051607  12.004766  1.599959
 1.410000  0.058030  12.051232  1.606152
 1.420000  0.046647  12.093944  1.611844
 1.430000  0.035386  12.120357  1.615365
 1.440000  0.028904  12.136442  1.617508
 1.450000 -0.040884  12.155758  1.620083
 1.460000 -0.138737  12.316937  1.641564
 1.470000 -0.174135  12.698869  1.692467
 1.480000 -0.155248  13.118200  1.748354
 1.490000 -0.115563  13.406795  1.786817
 1.500000 -0.050910  13.529660  1.803192
 1.510000  0.024677  13.554321  1.806479
 1.520000  0.071053  13.597911  1.812289
 1.530000  0.114133  13.737174  1.830849
 1.540000  0.153308  14.018627  1.868360
 1.550000  0.158889  14.394226  1.918419
 1.560000  0.127484  14.713957  1.961032
 1.570000  0.077155  14.885042  1.983834
 1.580000  0.041277  14.944035  1.991696
 1.590000  0.042038  14.970778  1.995260
 1.600000  0.079191  15.032712  2.003515
 1.610000  0.084583  15.136153  2.017301
 1.620000  0.037636  15.202189  2.026102
 1.630000 -0.013950  15.214602  2.027756
 1.640000 -0.015356  15.217918  2.028198
 1.650000  0.041554  15.233039  2.030214
 1.660000  0.087995  15.306002  2.039938
 1.670000  0.080231  15.415257  2.054499
 1.680000  0.028421  15.471076  2.061938
 1.690000 -0.044941  15.492861  2.064842
 1.700000 -0.104595  15.592713  2.078150
 1.710000 -0.136064  15.819645  2.108395
 1.720000 -0.113518  16.061572  2.140638
 1.730000 -0.070680  16.199349  2.159000
 1.740000 -0.069686  16.275254  2.169117
 1.750000 -0.087858  16.372143  2.182030
 1.760000 -0.064069  16.463243  2.194171
 1.770000  0.016251  16.496904  2.198658
 1.780000  0.062436  16.528974  2.202932
 1.790000  0.065770  16.592337  2.211377
 1.800000  0.070532  16.663995  2.220927
 1.810000  0.077048  16.748062  2.232131
 1.820000  0.073885  16.835861  2.243833
 1.830000  0.076045  16.922476  2.255377
 1.840000  0.100790  17.045301  2.271746
 1.850000  0.128813  17.251414  2.299217
 1.860000  0.113912  17.479234  2.329580
 1.870000  0.052972  17.600830  2.345786
 1.880000  0.015320  17.624258  2.348908
 1.890000  0.027969  17.632094  2.349952
 1.900000  0.067110  17.672821  2.355381
 1.910000  0.100897  17.785958  2.370459
 1.920000  0.109556  17.956871  2.393238
 1.930000  0.107469  18.138334  2.417423
 1.940000  0.102754  18.308670  2.440125
 1.950000  0.097602  18.463417  2.460749
 1.960000  0.096087  18.607949  2.480012
 1.970000  0.087157  18.737613  2.497293
 1.980000  0.079550  18.844899  2.511591
 1.990000  0.098258  18.968043  2.528004
 2.000000  0.145657  19.205893  2.559704
 2.010000  0.189843  19.647039  2.618498
 2.020000  0.214239  20.278356  2.702638
 2.030000  0.217921  20.997887  2.798535
 2.040000  0.219948  21.736517  2.896978
 2.050000  0.236102  22.538746  3.003896
 2.060000  0.245442  23.432389  3.122998
 2.070000  0.239916  24.340021  3.243965
 2.080000  0.221588  25.161817  3.353491
 2.090000  0.232547  25.956789  3.459443
 2.100000  0.280508  26.979694  3.595773
 2.110000  0.340686  28.480208  3.795757
 2.120000  0.343272  30.282371  4.035943
 2.130000  0.295590  31.863457  4.246666
 2.140000  0.244734  32.998122  4.397891
 2.150000  0.229143  33.864147  4.513312
 2.160000  0.237306  34.702583  4.625056
 2.170000  0.241896  35.587303  4.742969
 2.180000  0.268493  36.593561  4.877080
 2.190000  0.318472  37.930436  5.055254
 2.200000  0.352324  39.668295  5.286871
 2.210000  0.375479  41.710954  5.559111
 2.220000  0.406554  44.070694  5.873610
 2.230000  0.437038  46.815809  6.239470
 2.240000  0.448183  49.835074  6.641869
 2.250000  0.449880  52.942094  7.055963
 2.260000  0.451301  56.070722  7.472937
 2.270000  0.456728  59.247186  7.896287
 2.280000  0.473829  62.584226  8.341038
 2.290000  0.496319  66.211984  8.824534
 2.300000  0.513274  70.139735  9.348013
 2.310000  0.528114  74.318445  9.904939
 2.320000  0.542498  78.734877  10.493548
 2.330000  0.550285  83.335522  11.106708
 2.340000  0.549967  87.999036  11.728247
 2.350000  0.551141  92.669814  12.350754
 2.360000  0.551431  97.353016  12.974917
 2.370000  0.553704  102.058035  13.601988
 2.380000  0.560542  106.841112  14.239462
 2.390000  0.577071  111.827771  14.904069
 2.400000  0.597310  117.142436  15.612392
 2.410000  0.600324  122.668042  16.348828
 2.420000  0.531545  127.621653  17.009030
 2.430000  0.443129  131.311486  17.500800
 2.440000  0.241474  133.273680  17.762315
 2.450000  0.049226  133.741612  17.824680
 2.460000 -0.061847  133.789754  17.831096
 2.470000 -0.184429  134.081295  17.869952
 2.480000 -0.312768  135.097074  18.005332
 2.490000 -0.405466  137.117465  18.274603
 2.500000 -0.513143  140.412931  18.713813
 2.510000 -0.614733  145.353316  19.372253
 2.520000 -0.654997  151.570420  20.200850
 2.530000 -0.697803  158.627592  21.141408
 2.540000 -0.750486  166.718805  22.219781
 2.550000 -0.762633  175.539505  23.395377
 2.560000 -0.755568  184.419175  24.578833
 2.570000 -0.759734  193.264842  25.757757
 2.580000 -0.759319  202.154290  26.942516
 2.590000 -0.755177  210.990548  28.120186
 2.600000 -0.743078  219.638807  29.272800
 2.610000 -0.732430  228.026348  30.390666
 2.620000 -0.716195  236.111634  31.468249
 2.630000 -0.700892  243.848633  32.499413
 2.640000 -0.680528  251.201806  33.479421
 2.650000 -0.673272  258.262548  34.420456
 2.660000 -0.672623  265.240876  35.350506
 2.670000 -0.680269  272.292173  36.290282
 2.680000 -0.687874  279.503336  37.251364
 2.690000 -0.695279  286.873579  38.233648
 2.700000 -0.693779  294.306682  39.224310
 2.710000 -0.701622  301.808053  40.224070
 2.720000 -0.731089  309.719024  41.278420
 2.730000 -0.781718  318.545393  42.454772
 2.740000 -0.825195  328.500167  43.781514
 2.750000 -0.824587  338.985497  45.178968
 2.760000 -0.770272  348.795675  46.486439
 2.770000 -0.720485  357.366581  47.628743
 2.780000 -0.612741  364.258872  48.547327
 2.790000 -0.505713  369.122092  49.195482
 2.800000 -0.423305  372.473143  49.642100
 2.810000 -0.340189  374.745396  49.944939
 2.820000 -0.266393  376.183826  50.136649
 2.830000 -0.218412  377.098142  50.258506
 2.840000 -0.169261  377.686424  50.336911
 2.850000 -0.113305  378.006074  50.379513
 2.860000 -0.057938  378.130851  50.396143
 2.870000 -0.031114  378.164173  50.400584
 2.880000 -0.029411  378.178296  50.402466
 2.890000 -0.056365  378.209439  50.406617
 2.900000 -0.096072  378.305031  50.419357
 2.910000 -0.104923  378.460965  50.440139
 2.920000 -0.096538  378.617591  50.461014
 2.930000 -0.087955  378.749001  50.478528
 2.940000 -0.073933  378.850720  50.492085
 2.950000  0.008540  378.893397  50.497773
 2.960000  0.134378  379.033087  50.516390
 2.970000  0.252718  379.664291  50.600515
 2.980000  0.424219  381.542927  50.850894
 2.990000  0.541795  385.191156  51.337119
 3.000000  0.616987  390.385817  52.029448
 3.010000  0.505918  395.290865  52.683178
 3.020000  0.386164  398.411874  53.099136
 3.030000  0.331999  400.410071  53.365450
 3.040000  0.289569  401.905360  53.564738
 3.050000  0.264173  403.089101  53.722503
 3.060000  0.236863  404.059063  53.851777
 3.070000  0.246228  404.958457  53.971645
 3.080000  0.277998  406.021029  54.113262
 3.090000  0.312062  407.366785  54.292620
 3.100000  0.338028  408.997462  54.509952
 3.110000  0.355655  410.852409  54.757174
 3.120000  0.351356  412.778147  55.013830
 3.130000  0.330649  414.571659  55.252864
 3.140000  0.266508  415.961252  55.438065
 3.150000  0.212753  416.857241  55.557480
 3.160000  0.199434  417.512436  55.644802
 3.170000  0.199058  418.124178  55.726333
 3.180000  0.202819  418.746412  55.809263
 3.190000  0.201000  419.374631  55.892990
 3.200000  0.194950  419.978734  55.973503
 3.210000  0.192346  420.556610  56.050520
 3.220000  0.191368  421.123824  56.126117
 3.230000  0.185705  421.671694  56.199135
 3.240000  0.168814  422.156974  56.263812
 3.250000  0.146957  422.542940  56.315252
 3.260000  0.125284  422.830270  56.353547
 3.270000  0.094051  423.019357  56.378748
 3.280000  0.051181  423.107693  56.390521
 3.290000  0.020765  423.131198  56.393654
 3.300000  0.019196  423.137359  56.394475
 3.310000  0.051012  423.160248  56.397525
 3.320000  0.124705  423.300117  56.416167
 3.330000  0.202150  423.734788  56.474098
 3.340000  0.251416  424.536657  56.580969
 3.350000  0.282120  425.636910  56.727607
 3.360000  0.318881  427.033603  56.913755
 3.370000  0.347712  428.748595  57.142323
 3.380000  0.367574  430.721122  57.405216
 3.390000  0.372785  432.832837  57.686659
 3.400000  0.357776  434.889793  57.960804
 3.410000  0.329641  436.713254  58.203829
 3.420000  0.304654  438.265587  58.410719
 3.430000  0.281023  439.589171  58.587123
 3.440000  0.240106  440.641832  58.727418
 3.450000  0.196405  441.383228  58.826229
 3.460000  0.142062  441.835933  58.886565
 3.470000  0.040208  442.003884  58.908948
 3.480000 -0.029897  442.023226  58.911526
 3.490000 -0.064461  442.062128  58.916711
 3.500000 -0.095832  442.164902  58.930408
 3.510000 -0.130581  442.367038  58.957349
 3.520000 -0.161396  442.699113  59.001607
 3.530000 -0.207103  443.230281  59.072399
 3.540000 -0.254368  444.059273  59.182885
 3.550000 -0.274931  445.140174  59.326944
 3.560000 -0.289824  446.369737  59.490816
 3.570000 -0.313776  447.775496  59.678172
 3.580000 -0.325101  449.348391  59.887802
 3.590000 -0.312635  450.915780  60.096699
 3.600000 -0.280310  452.274239  60.277751
 3.610000 -0.268504  453.435100  60.432467
 3.620000 -0.265630  454.534211  60.578953
 3.630000 -0.248458  455.553479  60.714798
 3.640000 -0.211699  456.374404  60.824208
 3.650000 -0.179994  456.969321  60.903497
 3.660000 -0.167067  457.433989  60.965427
 3.670000 -0.179531  457.897375  61.027185
 3.680000 -0.217371  458.509760  61.108802
 3.690000 -0.299863  459.566606  61.249655
 3.700000 -0.343481  461.168402  61.463138
 3.710000 -0.311612  462.825550  61.683998
 3.720000 -0.184093  463.834814  61.818509
 3.730000 -0.057754  464.121629  61.856735
 3.740000 -0.000868  464.147335  61.860161
 3.750000  0.044179  464.162379  61.862166
 3.760000  0.068417  464.213482  61.868977
 3.770000  0.079118  464.297776  61.880211
 3.780000  0.089510  464.407737  61.894867
 3.790000  0.092339  464.535163  61.911850
 3.800000  0.077229  464.646812  61.926730
 3.810000  0.059017  464.719602  61.936431
 3.820000  0.048675  464.764692  61.942441
 3.830000  0.040616  464.795657  61.946567
 3.840000  0.036118  464.818418  61.949601
 3.850000  0.033704  464.837220  61.952107
 3.860000  0.039833  464.858198  61.954903
 3.870000  0.060865  464.898966  61.960336
 3.880000  0.124153  465.046269  61.979968
 3.890000  0.190493  465.444617  62.033059
 3.900000  0.197149  466.023671  62.110233
 3.910000  0.183736  466.583241  62.184811
 3.920000  0.166042  467.055765  62.247788
 3.930000  0.113216  467.366943  62.289261
 3.940000  0.038233  467.476964  62.303924
 3.950000 -0.035168  467.497756  62.306695
 3.960000 -0.105879  467.593658  62.319477
 3.970000 -0.181531  467.933929  62.364827
 3.980000 -0.239659  468.630362  62.457645
 3.990000 -0.258125  469.586252  62.585044
 4.000000 -0.260352  470.621861  62.723066
 4.010000 -0.267664  471.696114  62.866240
 4.020000 -0.270625  472.812393  63.015014
 4.030000 -0.272950  473.950691  63.166723
 4.040000 -0.270034  475.086527  63.318104
 4.050000 -0.270521  476.212191  63.468129
 4.060000 -0.271362  477.343395  63.618892
 4.070000 -0.293862  478.576096  63.783183
 4.080000 -0.325124  480.055876  63.980404
 4.090000 -0.258653  481.385770  64.157648
 4.100000 -0.062807  481.931622  64.230397
 4.110000  0.063435  481.993018  64.238580
 4.120000  0.141307  482.177868  64.263216
 4.130000  0.255354  482.834107  64.350678
 4.140000  0.426341  484.736969  64.604286
 4.150000  0.515920  488.188238  65.064260
 4.160000  0.532371  492.422713  65.628618
 4.170000  0.513363  496.636909  66.190274
 4.180000  0.424106  500.053256  66.645594
 4.190000  0.248295  501.914080  66.893599
 4.200000  0.114659  502.490373  66.970406
 4.210000  0.059830  502.619246  66.987582
 4.220000  0.037918  502.657904  66.992734
 4.230000 -0.006587  502.669316  66.994255
 4.240000 -0.094502  502.738458  67.003470
 4.250000 -0.175565  503.044750  67.044292
 4.260000 -0.248083  503.756425  67.139141
 4.270000 -0.270198  504.793116  67.277309
 4.280000 -0.271815  505.924871  67.428145
 4.290000 -0.298870  507.182338  67.595737
 4.300000 -0.344504  508.784976  67.809332
 4.310000 -0.390982  510.877202  68.088177
 4.320000 -0.432487  513.496140  68.437221
 4.330000 -0.451107  516.505175  68.838257
 4.340000 -0.450271  519.635167  69.255412
 4.350000 -0.408001  522.479830  69.634541
 4.360000 -0.347692  524.693827  69.929615
 4.370000 -0.334120  526.485382  70.168389
 4.380000 -0.298773  528.033279  70.374688
 4.390000 -0.169511  528.942435  70.495857
 4.400000 -0.045015  529.179436  70.527444
 4.410000  0.010332  529.195872  70.529634
 4.420000  0.051630  529.217233  70.532481
 4.430000  0.086874  529.295920  70.542969
 4.440000  0.140185  529.505481  70.570898
 4.450000  0.167734  529.873665  70.619969
 4.460000  0.179646  530.339089  70.681999
 4.470000  0.211318  530.931800  70.760994
 4.480000  0.294381  531.943554  70.895837
 4.490000  0.328744  533.443923  71.095802
 4.500000  0.308379  535.009300  71.304431
 4.510000  0.230918  536.152845  71.456839
 4.520000  0.136217  536.706649  71.530648
 4.530000  0.075846  536.893934  71.555609
 4.540000  0.033478  536.946893  71.562667
 4.550000  0.039319  536.967440  71.565406
 4.560000  0.069837  537.016929  71.572001
 4.570000  0.113879  537.154425  71.590327
 4.580000  0.139932  537.405211  71.623750
 4.590000  0.135318  537.697159  71.662660
 4.600000  0.057956  537.864120  71.684913
 4.610000 -0.035594  537.899761  71.689663
 4.620000 -0.113927  538.009525  71.704292
 4.630000 -0.140726  538.262111  71.737956
 4.640000 -0.121582  538.528588  71.773471
 4.650000 -0.087092  538.700922  71.796439
 4.660000 -0.057038  538.784430  71.807569
 4.670000 -0.012828  538.810764  71.811078
 4.680000  0.049248  538.830719  71.813738
 4.690000  0.076435  538.894420  71.822228
 4.700000  0.079183  538.987742  71.834665
 4.710000  0.034619  539.045284  71.842335
